Labels,EmScan1,
Type,Emission Scan,
Comment,Range = [320.00 - 440.00] nm; Peak at 331.00 nm; FWHM = 22.62 nm; Color Coordinates (CIE 1931): x = 0.1691 y = 0.0070,
Start,320.00,
Stop,500.00,
Step,1.00,
Fixed/Offset,300.00,
Xaxis,Wavelength,
Yaxis,Counts,
Scan Corr. by File,True,
Corr. by Ref. Det.,True,
Fixed/Offset Corr. by File,False,
Repeats,1,
Dwell Time,0.10,
Lamp,Xenon,
Temp,0.00,
Scan Polariser,None,
Scan Slit,0.99968487,
Fixed/Offset Polariser,None,
Fixed/Offset Slit,3.0001483,
Detector,Detector 1,

320.00,1.76731396E+3,
321.00,1.54085095E+3,
322.00,1.29928955E+3,
323.00,1.35338818E+3,
324.00,1.16953699E+3,
325.00,1.10622998E+3,
326.00,1.25378198E+3,
327.00,1.53242273E+3,
328.00,1.86873938E+3,
329.00,2.46588477E+3,
330.00,2.84403125E+3,
331.00,2.92547656E+3,
332.00,2.58308423E+3,
333.00,2.06016919E+3,
334.00,1.70723218E+3,
335.00,1.54731555E+3,
336.00,1.40037146E+3,
337.00,1.32494189E+3,
338.00,1.28078015E+3,
339.00,1.12506555E+3,
340.00,1.13185303E+3,
341.00,1.04132971E+3,
342.00,1.27222192E+3,
343.00,1.45712732E+3,
344.00,1.61969067E+3,
345.00,1.98947034E+3,
346.00,2.48571167E+3,
347.00,2.62728418E+3,
348.00,2.67886328E+3,
349.00,2.90229980E+3,
350.00,2.61002686E+3,
351.00,2.32860181E+3,
352.00,2.19712451E+3,
353.00,2.05174512E+3,
354.00,2.10427783E+3,
355.00,1.98816052E+3,
356.00,1.87918408E+3,
357.00,1.77904163E+3,
358.00,1.75057715E+3,
359.00,1.53709546E+3,
360.00,1.60853320E+3,
361.00,1.45791504E+3,
362.00,1.47045093E+3,
363.00,1.54795300E+3,
364.00,1.45256494E+3,
365.00,1.58612585E+3,
366.00,1.55182080E+3,
367.00,1.48514600E+3,
368.00,1.56910938E+3,
369.00,1.55088660E+3,
370.00,1.48228516E+3,
371.00,1.49743481E+3,
372.00,1.20314001E+3,
373.00,1.19611597E+3,
374.00,1.03633582E+3,
375.00,1.12401526E+3,
376.00,1.09229895E+3,
377.00,1.05479333E+3,
378.00,1.08707629E+3,
379.00,1.07144031E+3,
380.00,1.06391724E+3,
381.00,1.02100464E+3,
382.00,1.01559747E+3,
383.00,1.06035413E+3,
384.00,8.71455139E+2,
385.00,1.05392676E+3,
386.00,9.08082458E+2,
387.00,9.58287354E+2,
388.00,9.31681824E+2,
389.00,9.12142883E+2,
390.00,9.43137329E+2,
391.00,8.96269104E+2,
392.00,9.15402161E+2,
393.00,9.48696960E+2,
394.00,8.92552124E+2,
395.00,8.77803223E+2,
396.00,9.45437256E+2,
397.00,1.01054187E+3,
398.00,7.79803650E+2,
399.00,8.73486816E+2,
400.00,8.85640625E+2,
401.00,8.62624207E+2,
402.00,9.01174255E+2,
403.00,8.76719299E+2,
404.00,7.79663452E+2,
405.00,7.69647034E+2,
406.00,8.05459595E+2,
407.00,7.97455994E+2,
408.00,7.93119385E+2,
409.00,7.36780823E+2,
410.00,6.74896545E+2,
411.00,7.47954407E+2,
412.00,6.24731445E+2,
413.00,6.88462708E+2,
414.00,5.69796875E+2,
415.00,6.48544189E+2,
416.00,6.93862366E+2,
417.00,6.78481262E+2,
418.00,6.14482300E+2,
419.00,6.74691711E+2,
420.00,6.74713013E+2,
421.00,6.26999146E+2,
422.00,6.40754639E+2,
423.00,6.24329712E+2,
424.00,5.43350586E+2,
425.00,5.65199707E+2,
426.00,6.52733582E+2,
427.00,5.99075745E+2,
428.00,6.67483826E+2,
429.00,5.38868347E+2,
430.00,5.29525574E+2,
431.00,5.68605591E+2,
432.00,5.54331726E+2,
433.00,5.66941956E+2,
434.00,5.52470276E+2,
435.00,5.07638000E+2,
436.00,5.14085510E+2,
437.00,5.05652374E+2,
438.00,5.32330383E+2,
439.00,4.73420074E+2,
440.00,4.57518372E+2,
441.00,4.90215546E+2,
442.00,4.86441803E+2,
443.00,4.08669800E+2,
444.00,5.01109131E+2,
445.00,5.25263733E+2,
446.00,4.76124969E+2,
447.00,4.23178162E+2,
448.00,4.76488312E+2,
449.00,5.41883484E+2,
450.00,4.84602020E+2,
451.00,5.27719604E+2,
452.00,4.42347626E+2,
453.00,4.01600372E+2,
454.00,4.46885925E+2,
455.00,4.04438293E+2,
456.00,4.50033905E+2,
457.00,4.07051758E+2,
458.00,4.32301666E+2,
459.00,4.24007294E+2,
460.00,3.76563995E+2,
461.00,3.84680298E+2,
462.00,4.07380463E+2,
463.00,3.83273529E+2,
464.00,3.99756897E+2,
465.00,3.88756958E+2,
466.00,3.85945953E+2,
467.00,4.24293823E+2,
468.00,3.58145416E+2,
469.00,3.54615417E+2,
470.00,4.30997375E+2,
471.00,3.54001953E+2,
472.00,3.49822571E+2,
473.00,3.01866760E+2,
474.00,3.25787659E+2,
475.00,3.16446655E+2,
476.00,3.40644775E+2,
477.00,2.73593140E+2,
478.00,3.54306244E+2,
479.00,2.83589447E+2,
480.00,2.85917328E+2,
481.00,2.64231750E+2,
482.00,2.33667526E+2,
483.00,2.63500854E+2,
484.00,2.48650726E+2,
485.00,3.08493011E+2,
486.00,2.97307190E+2,
487.00,2.25184509E+2,
488.00,2.54024460E+2,
489.00,2.51670197E+2,
490.00,2.59995789E+2,
491.00,2.72038879E+2,
492.00,2.28841919E+2,
493.00,2.37284637E+2,
494.00,2.02555664E+2,
495.00,2.54579239E+2,
496.00,2.33992371E+2,
497.00,2.18761246E+2,
498.00,2.53232117E+2,
499.00,2.11932907E+2,
500.00,2.18829544E+2,
